#pragma once

namespace phil {
    // lookup table for 18-63mm
    const float REFLECTANCE_LOOKUP[801] = {
            18.,
            18.0291,
            18.058,
            18.0868,
            18.1155,
            18.144,
            18.1724,
            18.2006, 
            18.2287,
            18.2566,
            18.2844,
            18.312,
            18.3395,
            18.3669,
            18.3941, 
            18.4212,
            18.4482,
            18.475,
            18.5016,
            18.5282,
            18.5545,
            18.5808, 
            18.6069,
            18.6329,
            18.6588,
            18.6845,
            18.7101,
            18.7355,
            18.7608, 
            18.786,
            18.8111,
            18.836,
            18.8608,
            18.8855,
            18.91,
            18.9344,
            18.9587, 
            18.9829,
            19.0069,
            19.0308,
            19.0546,
            19.0782,
            19.1018,
            19.1252, 
            19.1485,
            19.1716,
            19.1947,
            19.2176,
            19.2404,
            19.2631,
            19.2856, 
            19.3081,
            19.3304,
            19.3526,
            19.3747,
            19.3967,
            19.4185,
            19.4403, 
            19.4619,
            19.4834,
            19.5048,
            19.5261,
            19.5473,
            19.5684,
            19.5893, 
            19.6102,
            19.6309,
            19.6515,
            19.6721,
            19.6925,
            19.7128,
            19.733, 
            19.7531,
            19.7731,
            19.7929,
            19.8127,
            19.8324,
            19.852,
            19.8714, 
            19.8908,
            19.9101,
            19.9292,
            19.9483,
            19.9673,
            19.9861,
            20.0049, 
            20.0236,
            20.0421,
            20.0606,
            20.079,
            20.0973,
            20.1155,
            20.1336, 
            20.1516,
            20.1695,
            20.1873,
            20.205,
            20.2226,
            20.2402,
            20.2576,
            20.275, 
            20.2923,
            20.3095,
            20.3266,
            20.3436,
            20.3605,
            20.3773,
            20.3941, 
            20.4108,
            20.4274,
            20.4439,
            20.4603,
            20.4766,
            20.4929,
            20.509, 
            20.5251,
            20.5411,
            20.5571,
            20.5729,
            20.5887,
            20.6044,
            20.62,
            20.6356, 
            20.6511,
            20.6664,
            20.6818,
            20.697,
            20.7122,
            20.7273,
            20.7423, 
            20.7573,
            20.7722,
            20.787,
            20.8017,
            20.8164,
            20.831,
            20.8455,
            20.86, 
            20.8744,
            20.8888,
            20.903,
            20.9172,
            20.9314,
            20.9455,
            20.9595, 
            20.9734,
            20.9873,
            21.0011,
            21.0149,
            21.0286,
            21.0423,
            21.0559, 
            21.0694,
            21.0829,
            21.0963,
            21.1096,
            21.1229,
            21.1362,
            21.1494, 
            21.1625,
            21.1756,
            21.1886,
            21.2016,
            21.2145,
            21.2274,
            21.2402, 
            21.253,
            21.2657,
            21.2784,
            21.291,
            21.3036,
            21.3161,
            21.3286,
            21.341, 
            21.3534,
            21.3658,
            21.3781,
            21.3903,
            21.4026,
            21.4147,
            21.4269, 
            21.4389,
            21.451,
            21.463,
            21.475,
            21.4869,
            21.4988,
            21.5106,
            21.5225, 
            21.5342,
            21.546,
            21.5577,
            21.5694,
            21.581,
            21.5926,
            21.6042,
            21.6157, 
            21.6272,
            21.6387,
            21.6501,
            21.6616,
            21.6729,
            21.6843,
            21.6956, 
            21.7069,
            21.7182,
            21.7295,
            21.7407,
            21.7519,
            21.763,
            21.7742, 
            21.7853,
            21.7964,
            21.8075,
            21.8185,
            21.8296,
            21.8406,
            21.8516, 
            21.8626,
            21.8735,
            21.8845,
            21.8954,
            21.9063,
            21.9172,
            21.928, 
            21.9389,
            21.9497,
            21.9606,
            21.9714,
            21.9822,
            21.993,
            22.0037, 
            22.0145,
            22.0253,
            22.036,
            22.0467,
            22.0575,
            22.0682,
            22.0789, 
            22.0896,
            22.1003,
            22.111,
            22.1217,
            22.1323,
            22.143,
            22.1537,
            22.1644, 
            22.175,
            22.1857,
            22.1964,
            22.207,
            22.2177,
            22.2284,
            22.239,
            22.2497, 
            22.2604,
            22.2711,
            22.2817,
            22.2924,
            22.3031,
            22.3138,
            22.3245, 
            22.3352,
            22.3459,
            22.3566,
            22.3674,
            22.3781,
            22.3889,
            22.3996, 
            22.4104,
            22.4212,
            22.432,
            22.4428,
            22.4536,
            22.4644,
            22.4753, 
            22.4861,
            22.497,
            22.5079,
            22.5188,
            22.5297,
            22.5407,
            22.5516, 
            22.5626,
            22.5736,
            22.5846,
            22.5957,
            22.6068,
            22.6178,
            22.629, 
            22.6401,
            22.6512,
            22.6624,
            22.6736,
            22.6849,
            22.6961,
            22.7074, 
            22.7187,
            22.7301,
            22.7414,
            22.7528,
            22.7643,
            22.7757,
            22.7872, 
            22.7987,
            22.8103,
            22.8219,
            22.8335,
            22.8451,
            22.8568,
            22.8686, 
            22.8803,
            22.8921,
            22.9039,
            22.9158,
            22.9277,
            22.9397,
            22.9517, 
            22.9637,
            22.9757,
            22.9879,
            23.,
            23.0175,
            23.035,
            23.0523,
            23.0697, 
            23.0869,
            23.1041,
            23.1213,
            23.1384,
            23.1555,
            23.1725,
            23.1894, 
            23.2063,
            23.2232,
            23.24,
            23.2568,
            23.2735,
            23.2902,
            23.3069,
            23.3235, 
            23.34,
            23.3566,
            23.3731,
            23.3895,
            23.406,
            23.4224,
            23.4388,
            23.4551, 
            23.4714,
            23.4877,
            23.504,
            23.5202,
            23.5365,
            23.5527,
            23.5688,
            23.585, 
            23.6012,
            23.6173,
            23.6334,
            23.6495,
            23.6656,
            23.6817,
            23.6978, 
            23.7139,
            23.7299,
            23.746,
            23.7621,
            23.7781,
            23.7942,
            23.8102, 
            23.8263,
            23.8423,
            23.8584,
            23.8745,
            23.8906,
            23.9066,
            23.9227, 
            23.9388,
            23.955,
            23.9711,
            23.9872,
            24.0034,
            24.0196,
            24.0358,
            24.052, 
            24.0682,
            24.0845,
            24.1008,
            24.1171,
            24.1334,
            24.1498,
            24.1662, 
            24.1826,
            24.1991,
            24.2156,
            24.2321,
            24.2487,
            24.2653,
            24.2819, 
            24.2986,
            24.3153,
            24.3321,
            24.3489,
            24.3657,
            24.3826,
            24.3996, 
            24.4166,
            24.4336,
            24.4507,
            24.4679,
            24.4851,
            24.5023,
            24.5196, 
            24.537,
            24.5544,
            24.5719,
            24.5895,
            24.6071,
            24.6248,
            24.6425, 
            24.6603,
            24.6782,
            24.6962,
            24.7142,
            24.7323,
            24.7505,
            24.7687, 
            24.787,
            24.8054,
            24.8239,
            24.8425,
            24.8611,
            24.8798,
            24.8986, 
            24.9175,
            24.9365,
            24.9556,
            24.9747,
            24.994,
            25.0133,
            25.0328, 
            25.0523,
            25.0719,
            25.0916,
            25.1114,
            25.1314,
            25.1514,
            25.1715, 
            25.1917,
            25.2121,
            25.2325,
            25.253,
            25.2737,
            25.2945,
            25.3153, 
            25.3363,
            25.3574,
            25.3786,
            25.4,
            25.4214,
            25.443,
            25.4647,
            25.4865, 
            25.5085,
            25.5305,
            25.5527,
            25.575,
            25.5975,
            25.6201,
            25.6428, 
            25.6656,
            25.6886,
            25.7117,
            25.7349,
            25.7583,
            25.7818,
            25.8055, 
            25.8293,
            25.8532,
            25.8773,
            25.9016,
            25.926,
            25.9505,
            25.9752,
            26., 
            26.0309,
            26.0617,
            26.0926,
            26.1234,
            26.1542,
            26.185,
            26.2159, 
            26.2467,
            26.2775,
            26.3083,
            26.3391,
            26.3699,
            26.4008,
            26.4316, 
            26.4625,
            26.4934,
            26.5244,
            26.5553,
            26.5863,
            26.6174,
            26.6484, 
            26.6796,
            26.7107,
            26.7419,
            26.7732,
            26.8045,
            26.8359,
            26.8673, 
            26.8988,
            26.9304,
            26.962,
            26.9937,
            27.0255,
            27.0574,
            27.0894, 
            27.1214,
            27.1535,
            27.1858,
            27.2181,
            27.2505,
            27.283,
            27.3156, 
            27.3484,
            27.3812,
            27.4142,
            27.4472,
            27.4804,
            27.5138,
            27.5472, 
            27.5808,
            27.6145,
            27.6484,
            27.6823,
            27.7165,
            27.7508,
            27.7852, 
            27.8198,
            27.8545,
            27.8894,
            27.9244,
            27.9597,
            27.9951,
            28.0306, 
            28.0663,
            28.1023,
            28.1383,
            28.1746,
            28.2111,
            28.2477,
            28.2846, 
            28.3216,
            28.3588,
            28.3963,
            28.4339,
            28.4718,
            28.5099,
            28.5481, 
            28.5866,
            28.6254,
            28.6643,
            28.7035,
            28.7429,
            28.7825,
            28.8224, 
            28.8625,
            28.9029,
            28.9435,
            28.9843,
            29.0254,
            29.0668,
            29.1084, 
            29.1503,
            29.1924,
            29.2349,
            29.2775,
            29.3205,
            29.3637,
            29.4073, 
            29.4511,
            29.4952,
            29.5395,
            29.5842,
            29.6292,
            29.6745,
            29.72,
            29.7659, 
            29.8121,
            29.8586,
            29.9054,
            29.9525,
            30.,
            30.0649,
            30.1293,
            30.1931, 
            30.2566,
            30.3195,
            30.382,
            30.4442,
            30.5059,
            30.5672,
            30.6282, 
            30.6888,
            30.7491,
            30.8091,
            30.8688,
            30.9282,
            30.9873,
            31.0462, 
            31.1049,
            31.1634,
            31.2216,
            31.2798,
            31.3377,
            31.3955,
            31.4532, 
            31.5108,
            31.5683,
            31.6258,
            31.6832,
            31.7405,
            31.7979,
            31.8552, 
            31.9126,
            31.97,
            32.0275,
            32.085,
            32.1427,
            32.2004,
            32.2582,
            32.3162, 
            32.3744,
            32.4327,
            32.4913,
            32.55,
            32.609,
            32.6682,
            32.7277,
            32.7875, 
            32.8475,
            32.9079,
            32.9687,
            33.0297,
            33.0912,
            33.153,
            33.2152, 
            33.2779,
            33.341,
            33.4046,
            33.4686,
            33.5331,
            33.5981,
            33.6637, 
            33.7298,
            33.7965,
            33.8637,
            33.9315,
            34.,
            34.0815,
            34.1628,
            34.2439, 
            34.3248,
            34.4056,
            34.4863,
            34.567,
            34.6476,
            34.7283,
            34.8091, 
            34.8899,
            34.971,
            35.0522,
            35.1337,
            35.2154,
            35.2975,
            35.3799, 
            35.4628,
            35.546,
            35.6298,
            35.7141,
            35.7989,
            35.8844,
            35.9705, 
            36.0573,
            36.1448,
            36.2331,
            36.3221,
            36.4121,
            36.5029,
            36.5947, 
            36.6874,
            36.7812,
            36.876,
            36.9719,
            37.0689,
            37.1671,
            37.2665, 
            37.3672,
            37.4692,
            37.5725,
            37.6772,
            37.7833,
            37.8909,
            38.,
            38.1465, 
            38.2906,
            38.4327,
            38.5728,
            38.7112,
            38.848,
            38.9835,
            39.1177,
            39.251, 
            39.3835,
            39.5154,
            39.6469,
            39.7781,
            39.9093,
            40.0407,
            40.1723, 
            40.3045,
            40.4374,
            40.5712,
            40.7061,
            40.8422,
            40.9799,
            41.1191, 
            41.2602,
            41.4034,
            41.5487,
            41.6965,
            41.8469,
            42.,
            42.12,
            42.248, 
            42.3841,
            42.528,
            42.6798,
            42.8395,
            43.0069,
            43.1821,
            43.365,
            43.5556, 
            43.7537,
            43.9594,
            44.1726,
            44.3933,
            44.6214,
            44.8568,
            45.0996, 
            45.3496,
            45.6069,
            45.8714,
            46.1429,
            46.4216,
            46.7073,
            47.,
            47.2996, 
            47.6062,
            47.9196,
            48.2398,
            48.5667,
            48.9004,
            49.2407,
            49.5876, 
            49.9411,
            50.3012,
            50.6677,
            51.0406,
            51.4199,
            51.8055,
            52.1975, 
            52.5956,
            53.,
            53.4105,
            53.8271,
            54.2498,
            54.6784,
            55.1131,
            55.5536, 
            56.,
            56.4522,
            56.9102,
            57.3739,
            57.8433,
            58.3183,
            58.7989,
            59.285, 
            59.7767,
            60.2737,
            60.7762,
            61.284,
            61.7971,
            62.3154,
            62.839,
            63.3677, 
            63.9016 
        };
    
    // lookup table for 27-2113mm
    const float DISTANCE_LOOKUP[2087] = {
        300.,
        299.266,
        298.54,
        297.824,
        297.117,
        296.418,
        295.729,
        295.048, 
        294.375,
        293.711,
        293.055,
        292.407,
        291.768,
        291.136,
        290.512, 
        289.896,
        289.288,
        288.687,
        288.093,
        287.507,
        286.928,
        286.355, 
        285.79,
        285.232,
        284.68,
        284.135,
        283.597,
        283.065,
        282.539,
        282.019, 
        281.506,
        280.998,
        280.496,
        280.,
        279.509,
        279.024,
        278.545,
        278.07, 
        277.601,
        277.137,
        276.677,
        276.223,
        275.773,
        275.328,
        274.887, 
        274.451,
        274.019,
        273.591,
        273.167,
        272.747,
        272.331,
        271.918, 
        271.509,
        271.104,
        270.702,
        270.303,
        269.907,
        269.515,
        269.125, 
        268.738,
        268.354,
        267.972,
        267.593,
        267.216,
        266.841,
        266.469, 
        266.098,
        265.73,
        265.363,
        264.998,
        264.634,
        264.272,
        263.912, 
        263.552,
        263.194,
        262.836,
        262.48,
        262.124,
        261.769,
        261.415, 
        261.061,
        260.707,
        260.353,
        260.,
        259.585,
        259.17,
        258.756,
        258.341, 
        257.927,
        257.512,
        257.098,
        256.685,
        256.271,
        255.858,
        255.445, 
        255.033,
        254.621,
        254.209,
        253.798,
        253.387,
        252.977,
        252.568, 
        252.159,
        251.751,
        251.344,
        250.937,
        250.532,
        250.127,
        249.722, 
        249.319,
        248.917,
        248.515,
        248.115,
        247.716,
        247.317,
        246.92, 
        246.524,
        246.129,
        245.736,
        245.343,
        244.952,
        244.562,
        244.174, 
        243.787,
        243.401,
        243.017,
        242.634,
        242.253,
        241.873,
        241.495, 
        241.119,
        240.744,
        240.371,
        240.,
        239.667,
        239.336,
        239.008,
        238.682, 
        238.358,
        238.035,
        237.716,
        237.398,
        237.082,
        236.768,
        236.456, 
        236.146,
        235.838,
        235.532,
        235.228,
        234.926,
        234.625,
        234.327, 
        234.03,
        233.735,
        233.442,
        233.15,
        232.86,
        232.572,
        232.286,
        232.001, 
        231.718,
        231.436,
        231.156,
        230.877,
        230.6,
        230.324,
        230.05,
        229.778, 
        229.506,
        229.236,
        228.968,
        228.701,
        228.435,
        228.17,
        227.907, 
        227.644,
