#pragma once

namespace phil {
    // lookup table for 18-63mm
    const float REFLECTANCE_LOOKUP_LEFT[1249] = {
         15.,
        15.0211,
        15.0421,
        15.063,
        15.0839,
        15.1046,
        15.1253,
        15.1459, 
        15.1664,
        15.1868,
        15.2071,
        15.2274,
        15.2476,
        15.2676,
        15.2876, 
        15.3076,
        15.3274,
        15.3472,
        15.3668,
        15.3864,
        15.406,
        15.4254, 
        15.4447,
        15.464,
        15.4832,
        15.5023,
        15.5213,
        15.5403,
        15.5592,
        15.578, 
        15.5967,
        15.6153,
        15.6339,
        15.6523,
        15.6707,
        15.6891,
        15.7073, 
        15.7255,
        15.7436,
        15.7616,
        15.7795,
        15.7974,
        15.8151,
        15.8328, 
        15.8505,
        15.868,
        15.8855,
        15.9029,
        15.9202,
        15.9375,
        15.9546, 
        15.9717,
        15.9888,
        16.0057,
        16.0226,
        16.0394,
        16.0561,
        16.0728, 
        16.0894,
        16.1059,
        16.1223,
        16.1387,
        16.155,
        16.1712,
        16.1873, 
        16.2034,
        16.2194,
        16.2353,
        16.2512,
        16.267,
        16.2827,
        16.2984,
        16.314, 
        16.3295,
        16.3449,
        16.3603,
        16.3756,
        16.3908,
        16.406,
        16.4211, 
        16.4361,
        16.451,
        16.4659,
        16.4807,
        16.4955,
        16.5102,
        16.5248, 
        16.5393,
        16.5538,
        16.5682,
        16.5826,
        16.5969,
        16.6111,
        16.6252, 
        16.6393,
        16.6533,
        16.6673,
        16.6812,
        16.695,
        16.7088,
        16.7225, 
        16.7361,
        16.7497,
        16.7632,
        16.7766,
        16.79,
        16.8033,
        16.8166,
        16.8297, 
        16.8429,
        16.8559,
        16.8689,
        16.8819,
        16.8947,
        16.9076,
        16.9203, 
        16.933,
        16.9456,
        16.9582,
        16.9707,
        16.9832,
        16.9956,
        17.0079, 
        17.0202,
        17.0324,
        17.0445,
        17.0566,
        17.0687,
        17.0806,
        17.0926, 
        17.1044,
        17.1162,
        17.128,
        17.1396,
        17.1513,
        17.1629,
        17.1744, 
        17.1858,
        17.1972,
        17.2086,
        17.2199,
        17.2311,
        17.2423,
        17.2534, 
        17.2645,
        17.2755,
        17.2864,
        17.2973,
        17.3082,
        17.319,
        17.3297, 
        17.3404,
        17.351,
        17.3616,
        17.3722,
        17.3826,
        17.393,
        17.4034,
        17.4137, 
        17.424,
        17.4342,
        17.4444,
        17.4545,
        17.4645,
        17.4745,
        17.4845, 
        17.4944,
        17.5043,
        17.5141,
        17.5238,
        17.5335,
        17.5432,
        17.5528, 
        17.5624,
        17.5719,
        17.5813,
        17.5907,
        17.6001,
        17.6094,
        17.6187, 
        17.6279,
        17.6371,
        17.6462,
        17.6553,
        17.6643,
        17.6733,
        17.6822, 
        17.6911,
        17.7,
        17.7088,
        17.7175,
        17.7262,
        17.7349,
        17.7435,
        17.7521, 
        17.7606,
        17.7691,
        17.7776,
        17.7859,
        17.7943,
        17.8026,
        17.8109, 
        17.8191,
        17.8273,
        17.8354,
        17.8435,
        17.8516,
        17.8596,
        17.8676, 
        17.8755,
        17.8834,
        17.8912,
        17.899,
        17.9068,
        17.9145,
        17.9222, 
        17.9298,
        17.9374,
        17.945,
        17.9525,
        17.96,
        17.9675,
        17.9749,
        17.9822, 
        17.9896,
        17.9969,
        18.0041,
        18.0113,
        18.0185,
        18.0257,
        18.0328, 
        18.0398,
        18.0469,
        18.0539,
        18.0608,
        18.0677,
        18.0746,
        18.0815, 
        18.0883,
        18.0951,
        18.1018,
        18.1085,
        18.1152,
        18.1218,
        18.1284, 
        18.135,
        18.1415,
        18.1481,
        18.1545,
        18.161,
        18.1674,
        18.1737,
        18.1801, 
        18.1864,
        18.1927,
        18.1989,
        18.2051,
        18.2113,
        18.2174,
        18.2236, 
        18.2296,
        18.2357,
        18.2417,
        18.2477,
        18.2537,
        18.2596,
        18.2655, 
        18.2714,
        18.2773,
        18.2831,
        18.2889,
        18.2946,
        18.3004,
        18.3061, 
        18.3117,
        18.3174,
        18.323,
        18.3286,
        18.3342,
        18.3397,
        18.3452, 
        18.3507,
        18.3562,
        18.3616,
        18.367,
        18.3724,
        18.3777,
        18.3831, 
        18.3884,
        18.3937,
        18.3989,
        18.4042,
        18.4094,
        18.4146,
        18.4197, 
        18.4249,
        18.43,
        18.4351,
        18.4401,
        18.4452,
        18.4502,
        18.4552,
        18.4602, 
        18.4651,
        18.4701,
        18.475,
        18.4799,
        18.4848,
        18.4896,
        18.4944, 
        18.4992,
        18.504,
        18.5088,
        18.5136,
        18.5183,
        18.523,
        18.5277,
        18.5324, 
        18.537,
        18.5417,
        18.5463,
        18.5509,
        18.5555,
        18.56,
        18.5646,
        18.5691, 
        18.5736,
        18.5781,
        18.5826,
        18.587,
        18.5915,
        18.5959,
        18.6003, 
        18.6047,
        18.6091,
        18.6135,
        18.6178,
        18.6222,
        18.6265,
        18.6308, 
        18.6351,
        18.6394,
        18.6437,
        18.6479,
        18.6522,
        18.6564,
        18.6606, 
        18.6648,
        18.669,
        18.6732,
        18.6773,
        18.6815,
        18.6856,
        18.6898, 
        18.6939,
        18.698,
        18.7021,
        18.7062,
        18.7103,
        18.7143,
        18.7184, 
        18.7224,
        18.7265,
        18.7305,
        18.7345,
        18.7385,
        18.7426,
        18.7465, 
        18.7505,
        18.7545,
        18.7585,
        18.7624,
        18.7664,
        18.7703,
        18.7743, 
        18.7782,
        18.7822,
        18.7861,
        18.79,
        18.7939,
        18.7978,
        18.8017,
        18.8056, 
        18.8095,
        18.8134,
        18.8173,
        18.8211,
        18.825,
        18.8289,
        18.8327, 
        18.8366,
        18.8404,
        18.8443,
        18.8481,
        18.852,
        18.8558,
        18.8597, 
        18.8635,
        18.8673,
        18.8712,
        18.875,
        18.8789,
        18.8827,
        18.8865, 
        18.8903,
        18.8942,
        18.898,
        18.9018,
        18.9057,
        18.9095,
        18.9133, 
        18.9172,
        18.921,
        18.9248,
        18.9287,
        18.9325,
        18.9363,
        18.9402,
        18.944, 
        18.9479,
        18.9517,
        18.9556,
        18.9594,
        18.9633,
        18.9671,
        18.971, 
        18.9749,
        18.9787,
        18.9826,
        18.9865,
        18.9904,
        18.9943,
        18.9982, 
        19.0021,
        19.006,
        19.0099,
        19.0138,
        19.0177,
        19.0217,
        19.0256, 
        19.0296,
        19.0335,
        19.0375,
        19.0414,
        19.0454,
        19.0494,
        19.0534, 
        19.0574,
        19.0614,
        19.0654,
        19.0694,
        19.0735,
        19.0775,
        19.0816, 
        19.0856,
        19.0897,
        19.0938,
        19.0979,
        19.102,
        19.1061,
        19.1103, 
        19.1144,
        19.1185,
        19.1227,
        19.1269,
        19.1311,
        19.1353,
        19.1395, 
        19.1437,
        19.1479,
        19.1522,
        19.1564,
        19.1607,
        19.165,
        19.1693, 
        19.1736,
        19.178,
        19.1823,
        19.1867,
        19.1911,
        19.1955,
        19.1999, 
        19.2043,
        19.2087,
        19.2132,
        19.2177,
        19.2221,
        19.2267,
        19.2312, 
        19.2357,
        19.2403,
        19.2448,
        19.2494,
        19.2541,
        19.2587,
        19.2633, 
        19.268,
        19.2727,
        19.2774,
        19.2821,
        19.2869,
        19.2916,
        19.2964, 
        19.3012,
        19.306,
        19.3109,
        19.3157,
        19.3206,
        19.3255,
        19.3304, 
        19.3354,
        19.3404,
        19.3454,
        19.3504,
        19.3554,
        19.3605,
        19.3656, 
        19.3707,
        19.3758,
        19.3809,
        19.3861,
        19.3913,
        19.3965,
        19.4018, 
        19.4071,
        19.4124,
        19.4177,
        19.423,
        19.4284,
        19.4338,
        19.4392, 
        19.4447,
        19.4502,
        19.4557,
        19.4612,
        19.4667,
        19.4723,
        19.4779, 
        19.4836,
        19.4892,
        19.4949,
        19.5007,
        19.5064,
        19.5122,
        19.518, 
        19.5238,
        19.5297,
        19.5356,
        19.5415,
        19.5475,
        19.5535,
        19.5595, 
        19.5655,
        19.5716,
        19.5777,
        19.5838,
        19.59,
        19.5962,
        19.6024,
        19.6087, 
        19.615,
        19.6213,
        19.6277,
        19.6341,
        19.6405,
        19.647,
        19.6534,
        19.66, 
        19.6665,
        19.6731,
        19.6797,
        19.6864,
        19.6931,
        19.6998,
        19.7066, 
        19.7134,
        19.7202,
        19.7271,
        19.734,
        19.741,
        19.7479,
        19.755,
        19.762, 
        19.7691,
        19.7762,
        19.7834,
        19.7906,
        19.7978,
        19.8051,
        19.8124, 
        19.8198,
        19.8272,
        19.8346,
        19.8421,
        19.8496,
        19.8571,
        19.8647, 
        19.8724,
        19.88,
        19.8877,
        19.8955,
        19.9033,
        19.9111,
        19.919,
        19.9269, 
        19.9348,
        19.9428,
        19.9509,
        19.959,
        19.9671,
        19.9752,
        19.9835, 
        19.9917,
        20.,
        20.027,
        20.0539,
        20.0806,
        20.1071,
        20.1335,
        20.1597, 
        20.1857,
        20.2115,
        20.2372,
        20.2627,
        20.2881,
        20.3132,
        20.3382, 
        20.3631,
        20.3878,
        20.4123,
        20.4367,
        20.4609,
        20.485,
        20.5089, 
        20.5326,
        20.5562,
        20.5797,
        20.603,
        20.6261,
        20.6491,
        20.6719, 
        20.6946,
        20.7172,
        20.7396,
        20.7619,
        20.784,
        20.806,
        20.8279,
        20.8496, 
        20.8711,
        20.8926,
        20.9139,
        20.9351,
        20.9561,
        20.977,
        20.9978, 
        21.0184,
        21.0389,
        21.0593,
        21.0796,
        21.0997,
        21.1198,
        21.1397, 
        21.1594,
        21.1791,
        21.1986,
        21.218,
        21.2374,
        21.2565,
        21.2756, 
        21.2946,
        21.3134,
        21.3322,
        21.3508,
        21.3693,
        21.3877,
        21.406, 
        21.4242,
        21.4423,
        21.4603,
        21.4782,
        21.496,
        21.5137,
        21.5313, 
        21.5488,
        21.5662,
        21.5835,
        21.6007,
        21.6179,
        21.6349,
        21.6518, 
        21.6687,
        21.6854,
        21.7021,
        21.7187,
        21.7352,
        21.7516,
        21.768, 
        21.7842,
        21.8004,
        21.8165,
        21.8326,
        21.8485,
        21.8644,
        21.8802, 
        21.8959,
        21.9116,
        21.9271,
        21.9426,
        21.9581,
        21.9735,
        21.9888, 
        22.004,
        22.0192,
        22.0343,
        22.0494,
        22.0644,
        22.0793,
        22.0942,
        22.109, 
        22.1238,
        22.1385,
        22.1532,
        22.1678,
        22.1823,
        22.1968,
        22.2113, 
        22.2257,
        22.2401,
        22.2544,
        22.2686,
        22.2829,
        22.2971,
        22.3112, 
        22.3253,
        22.3394,
        22.3534,
        22.3674,
        22.3813,
        22.3953,
        22.4092, 
        22.423,
        22.4368,
        22.4506,
        22.4644,
        22.4781,
        22.4919,
        22.5055, 
        22.5192,
        22.5329,
        22.5465,
        22.5601,
        22.5737,
        22.5872,
        22.6008, 
        22.6143,
        22.6278,
        22.6413,
        22.6548,
        22.6683,
        22.6817,
        22.6952, 
        22.7087,
        22.7221,
        22.7355,
        22.749,
        22.7624,
        22.7758,
        22.7893, 
        22.8027,
        22.8161,
        22.8295,
        22.843,
        22.8564,
        22.8699,
        22.8833, 
        22.8968,
        22.9102,
        22.9237,
        22.9372,
        22.9507,
        22.9642,
        22.9778, 
        22.9913,
        23.0049,
        23.0185,
        23.0321,
        23.0457,
        23.0593,
        23.073, 
        23.0867,
        23.1004,
        23.1141,
        23.1279,
        23.1417,
        23.1555,
        23.1694, 
        23.1833,
        23.1972,
        23.2112,
        23.2252,
        23.2392,
        23.2533,
        23.2674, 
        23.2815,
        23.2957,
        23.31,
        23.3242,
        23.3386,
        23.3529,
        23.3673,
        23.3818, 
        23.3963,
        23.4109,
        23.4255,
        23.4402,
        23.4549,
        23.4696,
        23.4845, 
        23.4994,
        23.5143,
        23.5293,
        23.5444,
        23.5595,
        23.5747,
        23.5899, 
        23.6053,
        23.6206,
        23.6361,
        23.6516,
        23.6672,
        23.6829,
        23.6986, 
        23.7144,
        23.7303,
        23.7463,
        23.7623,
        23.7784,
        23.7946,
        23.8109, 
        23.8272,
        23.8436,
        23.8602,
        23.8768,
        23.8934,
        23.9102,
        23.9271, 
        23.944,
        23.9611,
        23.9782,
        23.9954,
        24.0128,
        24.0302,
        24.0477, 
        24.0653,
        24.083,
        24.1008,
        24.1187,
        24.1367,
        24.1548,
        24.173,
        24.1914, 
        24.2098,
        24.2283,
        24.247,
        24.2657,
        24.2846,
        24.3035,
        24.3226, 
        24.3418,
        24.3611,
        24.3806,
        24.4001,
        24.4198,
        24.4396,
        24.4595, 
        24.4795,
        24.4997,
        24.52,
        24.5404,
        24.5609,
        24.5816,
        24.6024,
        24.6233, 
        24.6443,
        24.6655,
        24.6869,
        24.7083,
        24.7299,
        24.7516,
        24.7735, 
        24.7955,
        24.8176,
        24.8399,
        24.8624,
        24.8849,
        24.9076,
        24.9305, 
        24.9535,
        24.9767,
        25.,
        25.0359,
        25.0717,
        25.1073,
        25.1427,
        25.1781, 
        25.2133,
        25.2483,
        25.2832,
        25.318,
        25.3527,
        25.3873,
        25.4217, 
        25.4561,
        25.4903,
        25.5244,
        25.5584,
        25.5924,
        25.6262,
        25.66,
        25.6936, 
        25.7272,
        25.7608,
        25.7942,
        25.8276,
        25.8609,
        25.8941,
        25.9273, 
        25.9605,
        25.9936,
        26.0266,
        26.0596,
        26.0926,
        26.1255,
        26.1584, 
        26.1913,
        26.2242,
        26.257,
        26.2898,
        26.3226,
        26.3554,
        26.3882,
        26.421, 
        26.4538,
        26.4866,
        26.5195,
        26.5523,
        26.5852,
        26.618,
        26.6509, 
        26.6839,
        26.7169,
        26.7499,
        26.7829,
        26.816,
        26.8492,
        26.8824, 
        26.9156,
        26.949,
        26.9824,
        27.0158,
        27.0493,
        27.0829,
        27.1166, 
        27.1504,
        27.1843,
        27.2182,
        27.2523,
        27.2864,
        27.3206,
        27.355, 
        27.3895,
        27.424,
        27.4587,
        27.4936,
        27.5285,
        27.5636,
        27.5988, 
        27.6341,
        27.6696,
        27.7053,
        27.7411,
        27.777,
        27.8131,
        27.8493, 
        27.8858,
        27.9223,
        27.9591,
        27.996,
        28.0331,
        28.0704,
        28.1079, 
        28.1456,
        28.1834,
        28.2215,
        28.2598,
        28.2983,
        28.3369,
        28.3758, 
        28.4149,
        28.4543,
        28.4938,
        28.5336,
        28.5737,
        28.6139,
        28.6544, 
        28.6952,
        28.7361,
        28.7774,
        28.8189,
        28.8606,
        28.9027,
        28.945, 
        28.9875,
        29.0303,
        29.0735,
        29.1168,
        29.1605,
        29.2045,
        29.2488, 
        29.2933,
        29.3382,
        29.3833,
        29.4288,
        29.4746,
        29.5207,
        29.5671, 
        29.6139,
        29.661,
        29.7084,
        29.7561,
        29.8042,
        29.8526,
        29.9014, 
        29.9505,
        30.,
        30.0503,
        30.1009,
        30.1518,
        30.2031,
        30.2548,
        30.3068, 
        30.3592,
        30.412,
        30.4651,
        30.5186,
        30.5725,
        30.6268,
        30.6814, 
        30.7365,
        30.7919,
        30.8478,
        30.904,
        30.9607,
        31.0178,
        31.0753, 
        31.1332,
        31.1915,
        31.2503,
        31.3095,
        31.3691,
        31.4292,
        31.4898, 
        31.5507,
        31.6122,
        31.6741,
        31.7364,
        31.7993,
        31.8625,
        31.9263, 
        31.9906,
        32.0553,
        32.1205,
        32.1862,
        32.2524,
        32.3191,
        32.3863, 
        32.454,
        32.5223,
        32.591,
        32.6603,
        32.73,
        32.8004,
        32.8712,
        32.9426, 
        33.0145,
        33.087,
        33.16,
        33.2335,
        33.3077,
        33.3823,
        33.4576,
        33.5334, 
        33.6098,
        33.6867,
        33.7643,
        33.8424,
        33.9211,
        34.0005,
        34.0804, 
        34.1609,
        34.242,
        34.3237,
        34.4061,
        34.489,
        34.5726,
        34.6568,
        34.7417, 
        34.8271,
        34.9132,
        35.,
        35.1006,
        35.201,
        35.3013,
        35.4013,
        35.5012, 
        35.6009,
        35.7006,
        35.8002,
        35.8997,
        35.9992,
        36.0987,
        36.1982, 
        36.2977,
        36.3973,
        36.4971,
        36.5969,
        36.6969,
        36.797,
        36.8973, 
        36.9979,
        37.0987,
        37.1997,
        37.3011,
        37.4027,
        37.5047,
        37.6071, 
        37.7098,
        37.813,
        37.9166,
        38.0206,
        38.1251,
        38.2302,
        38.3358, 
        38.4419,
        38.5486,
        38.6559,
        38.7639,
        38.8725,
        38.9818,
        39.0918, 
        39.2025,
        39.314,
        39.4262,
        39.5393,
        39.6532,
        39.7679,
        39.8835,
        40., 
        40.2003,
        40.3942,
        40.5819,
        40.7637,
        40.9398,
        41.1105,
        41.2761, 
        41.4369,
        41.593,
        41.7447,
