#pragma once

namespace phil {
    // lookup table for 18-63mm
    const float REFLECTANCE_LOOKUP_LEFT[767] = {
         15.,
        15.0248,
        15.0494,
        15.074,
        15.0984,
        15.1228,
        15.147,
        15.1711, 
        15.1951,
        15.219,
        15.2429,
        15.2665,
        15.2901,
        15.3136,
        15.337,
        15.3603, 
        15.3835,
        15.4066,
        15.4295,
        15.4524,
        15.4752,
        15.4979,
        15.5204, 
        15.5429,
        15.5653,
        15.5876,
        15.6098,
        15.6319,
        15.6538,
        15.6757, 
        15.6976,
        15.7193,
        15.7409,
        15.7624,
        15.7838,
        15.8052,
        15.8264, 
        15.8476,
        15.8687,
        15.8896,
        15.9105,
        15.9313,
        15.952,
        15.9727, 
        15.9932,
        16.0137,
        16.034,
        16.0543,
        16.0745,
        16.0946,
        16.1146, 
        16.1346,
        16.1545,
        16.1742,
        16.1939,
        16.2136,
        16.2331,
        16.2526, 
        16.272,
        16.2913,
        16.3105,
        16.3296,
        16.3487,
        16.3677,
        16.3866, 
        16.4055,
        16.4243,
        16.443,
        16.4616,
        16.4801,
        16.4986,
        16.517,
        16.5354, 
        16.5536,
        16.5718,
        16.59,
        16.608,
        16.626,
        16.6439,
        16.6618,
        16.6796, 
        16.6973,
        16.715,
        16.7326,
        16.7501,
        16.7676,
        16.785,
        16.8023,
        16.8196, 
        16.8368,
        16.854,
        16.8711,
        16.8881,
        16.9051,
        16.922,
        16.9388,
        16.9556, 
        16.9724,
        16.9891,
        17.0057,
        17.0223,
        17.0388,
        17.0553,
        17.0717, 
        17.0881,
        17.1044,
        17.1206,
        17.1368,
        17.153,
        17.1691,
        17.1851, 
        17.2011,
        17.2171,
        17.233,
        17.2489,
        17.2647,
        17.2804,
        17.2962, 
        17.3118,
        17.3275,
        17.3431,
        17.3586,
        17.3741,
        17.3896,
        17.405, 
        17.4204,
        17.4357,
        17.451,
        17.4662,
        17.4815,
        17.4966,
        17.5118, 
        17.5269,
        17.5419,
        17.557,
        17.572,
        17.5869,
        17.6018,
        17.6167,
        17.6316, 
        17.6464,
        17.6612,
        17.676,
        17.6907,
        17.7054,
        17.72,
        17.7347,
        17.7493, 
        17.7639,
        17.7784,
        17.7929,
        17.8074,
        17.8219,
        17.8363,
        17.8508, 
        17.8652,
        17.8795,
        17.8939,
        17.9082,
        17.9225,
        17.9368,
        17.951, 
        17.9653,
        17.9795,
        17.9937,
        18.0079,
        18.022,
        18.0362,
        18.0503, 
        18.0644,
        18.0785,
        18.0926,
        18.1067,
        18.1207,
        18.1348,
        18.1488, 
        18.1628,
        18.1768,
        18.1908,
        18.2047,
        18.2187,
        18.2327,
        18.2466, 
        18.2605,
        18.2745,
        18.2884,
        18.3023,
        18.3162,
        18.3301,
        18.344, 
        18.3579,
        18.3718,
        18.3856,
        18.3995,
        18.4134,
        18.4273,
        18.4411, 
        18.455,
        18.4689,
        18.4827,
        18.4966,
        18.5105,
        18.5244,
        18.5382, 
        18.5521,
        18.566,
        18.5799,
        18.5938,
        18.6077,
        18.6216,
        18.6355, 
        18.6494,
        18.6633,
        18.6772,
        18.6912,
        18.7051,
        18.7191,
        18.7331, 
        18.747,
        18.761,
        18.775,
        18.789,
        18.8031,
        18.8171,
        18.8312,
        18.8452, 
        18.8593,
        18.8734,
        18.8875,
        18.9017,
        18.9158,
        18.93,
        18.9442,
        18.9584, 
        18.9726,
        18.9869,
        19.0011,
        19.0154,
        19.0297,
        19.0441,
        19.0584, 
        19.0728,
        19.0872,
        19.1016,
        19.1161,
        19.1306,
        19.1451,
        19.1596, 
        19.1742,
        19.1887,
        19.2034,
        19.218,
        19.2327,
        19.2474,
        19.2621, 
        19.2769,
        19.2917,
        19.3065,
        19.3214,
        19.3363,
        19.3512,
        19.3662, 
        19.3812,
        19.3963,
        19.4113,
        19.4264,
        19.4416,
        19.4568,
        19.472, 
        19.4873,
        19.5026,
        19.5179,
        19.5333,
        19.5488,
        19.5642,
        19.5798, 
        19.5953,
        19.6109,
        19.6266,
        19.6423,
        19.658,
        19.6738,
        19.6896, 
        19.7055,
        19.7214,
        19.7374,
        19.7534,
        19.7695,
        19.7856,
        19.8018, 
        19.818,
        19.8343,
        19.8506,
        19.867,
        19.8834,
        19.8999,
        19.9165,
        19.9331, 
        19.9497,
        19.9664,
        19.9832,
        20.,
        20.0198,
        20.0395,
        20.0593,
        20.0791, 
        20.0989,
        20.1187,
        20.1386,
        20.1584,
        20.1783,
        20.1982,
        20.2181, 
        20.238,
        20.2579,
        20.2778,
        20.2978,
        20.3178,
        20.3378,
        20.3579, 
        20.3779,
        20.398,
        20.4181,
        20.4382,
        20.4584,
        20.4786,
        20.4988, 
        20.5191,
        20.5393,
        20.5596,
        20.58,
        20.6004,
        20.6208,
        20.6412,
        20.6617, 
        20.6822,
        20.7028,
        20.7234,
        20.744,
        20.7647,
        20.7854,
        20.8061, 
        20.8269,
        20.8478,
        20.8687,
        20.8896,
        20.9106,
        20.9316,
        20.9527, 
        20.9738,
        20.9949,
        21.0162,
        21.0374,
        21.0588,
        21.0801,
        21.1016, 
        21.123,
        21.1446,
        21.1662,
        21.1878,
        21.2095,
        21.2313,
        21.2532,
        21.275, 
        21.297,
        21.319,
        21.3411,
        21.3632,
        21.3854,
        21.4077,
        21.4301,
        21.4525, 
        21.4749,
        21.4975,
        21.5201,
        21.5428,
        21.5656,
        21.5884,
        21.6113, 
        21.6343,
        21.6573,
        21.6805,
        21.7037,
        21.727,
        21.7503,
        21.7738, 
        21.7973,
        21.8209,
        21.8446,
        21.8684,
        21.8923,
        21.9162,
        21.9402, 
        21.9644,
        21.9886,
        22.0129,
        22.0372,
        22.0617,
        22.0863,
        22.1109, 
        22.1357,
        22.1605,
        22.1855,
        22.2105,
        22.2356,
        22.2609,
        22.2862, 
        22.3116,
        22.3371,
        22.3627,
        22.3885,
        22.4143,
        22.4402,
        22.4663, 
        22.4924,
        22.5186,
        22.545,
        22.5715,
        22.598,
        22.6247,
        22.6515,
        22.6784, 
        22.7054,
        22.7325,
        22.7598,
        22.7871,
        22.8146,
        22.8422,
        22.8698, 
        22.8977,
        22.9256,
        22.9537,
        22.9818,
        23.0101,
        23.0385,
        23.0671, 
        23.0958,
        23.1245,
        23.1535,
        23.1825,
        23.2117,
        23.241,
        23.2704,
        23.3, 
        23.3296,
        23.3595,
        23.3894,
        23.4195,
        23.4497,
        23.4801,
        23.5106, 
        23.5412,
        23.572,
        23.6029,
        23.6339,
        23.6651,
        23.6964,
        23.7279, 
        23.7595,
        23.7913,
        23.8232,
        23.8552,
        23.8874,
        23.9197,
        23.9522, 
        23.9849,
        24.0176,
        24.0506,
        24.0837,
        24.1169,
        24.1503,
        24.1838, 
        24.2176,
        24.2514,
        24.2854,
        24.3196,
        24.3539,
        24.3884,
        24.4231, 
        24.4579,
        24.4929,
        24.528,
        24.5633,
        24.5988,
        24.6344,
        24.6702, 
        24.7062,
        24.7423,
        24.7786,
        24.8151,
        24.8517,
        24.8885,
        24.9255, 
        24.9627,
        25.,
        25.0748,
        25.1486,
        25.2215,
        25.2934,
        25.3643,
        25.4344, 
        25.5035,
        25.5718,
        25.6392,
        25.7057,
        25.7714,
        25.8362,
        25.9002, 
        25.9634,
        26.0257,
        26.0873,
        26.1482,
        26.2082,
        26.2676,
        26.3262, 
        26.384,
        26.4412,
        26.4977,
        26.5535,
        26.6086,
        26.6631,
        26.7169, 
        26.7702,
        26.8228,
        26.8748,
        26.9262,
        26.977,
        27.0273,
        27.0771, 
        27.1263,
        27.175,
        27.2232,
        27.2709,
        27.3181,
        27.3648,
        27.4111,
        27.457, 
        27.5024,
        27.5475,
        27.5921,
        27.6363,
        27.6802,
        27.7237,
        27.7669, 
        27.8097,
        27.8522,
        27.8944,
        27.9364,
        27.978,
        28.0194,
        28.0605, 
        28.1014,
        28.142,
        28.1825,
        28.2227,
        28.2628,
        28.3027,
        28.3424,
        28.382, 
        28.4215,
        28.4608,
        28.5001,
        28.5392,
        28.5783,
        28.6173,
        28.6562, 
        28.6951,
        28.734,
        28.7729,
        28.8118,
        28.8507,
        28.8896,
        28.9286, 
        28.9676,
        29.0067,
        29.0458,
        29.0851,
        29.1245,
        29.164,
        29.2036, 
        29.2434,
        29.2833,
        29.3234,
        29.3637,
        29.4042,
        29.445,
        29.4859, 
        29.5271,
        29.5685,
        29.6103,
        29.6523,
        29.6946,
        29.7372,
        29.7801, 
        29.8233,
        29.8669,
        29.9109,
        29.9553,
        30.,
        30.1113,
        30.22,
        30.326, 
        30.4294,
        30.5304,
        30.6289,
        30.7251,
        30.8189,
        30.9106,
        31.,
        31.0874, 
        31.1727,
        31.2561,
        31.3376,
        31.4172,
        31.4951,
        31.5713,
        31.6458, 
        31.7188,
        31.7902,
        31.8603,
        31.9289,
        31.9963,
        32.0624,
        32.1274, 
        32.1913,
        32.2541,
        32.3159,
        32.3769,
        32.437,
        32.4963,
        32.555,
        32.613, 
        32.6704,
        32.7273,
        32.7838,
        32.8399,
        32.8957,
        32.9513,
        33.0067, 
        33.062,
        33.1172,
        33.1725,
        33.2278,
        33.2834,
        33.3391,
        33.3952, 
        33.4515,
        33.5084,
        33.5657,
        33.6235,
        33.682,
        33.7412,
        33.8011, 
        33.8619,
        33.9235,
        33.9861,
        34.0498,
        34.1145,
        34.1803,
        34.2474, 
        34.3158,
        34.3855,
        34.4567,
        34.5293,
        34.6035,
        34.6793,
        34.7568, 
        34.836,
        34.9171,
        35.,
        35.0281,
        35.0633,
        35.1055,
        35.1547,
        35.2108, 
        35.2736,
        35.343,
        35.4189,
        35.5013,
        35.59,
        35.6849,
        35.7859,
        35.893, 
        36.0059,
        36.1247,
        36.2492,
        36.3793,
        36.5149,
        36.6559,
        36.8021, 
        36.9536,
        37.1102,
        37.2718,
        37.4382,
        37.6095,
        37.7854,
        37.9659, 
        38.1508,
        38.3402,
        38.5338,
        38.7316,
        38.9334,
        39.1392,
        39.3489, 
        39.5623,
        39.7794,
        40.,
        40.2909,
        40.5747,
        40.8519,
        41.1229,
        41.3882, 
        41.6482,
        41.9034,
        42.1544,
        42.4015,
        42.6452,
        42.8861,
        43.1244, 
        43.3609,
        43.5958,
        43.8297,
        44.063,
        44.2962,
        44.5298,
        44.7643,
        45., 
        45.2375,
        45.4773,
        45.7197,
        45.9654,
        46.2147,
        46.4681,
        46.7261, 
        46.9891,
        47.2576,
        47.5322,
        47.8131,
        48.1011,
        48.3963,
        48.6995, 
        49.011,
        49.3312,
        49.6608,
        50.,
        50.3701,
        50.7492,
        51.1369,
        51.5333, 
        51.9382,
        52.3515,
        52.773,
        53.2027,
        53.6403,
        54.0859,
        54.5391,
        55., 
        55.4684,
        55.9441,
        56.4271,
        56.9172,
        57.4142,
        57.9182,
        58.4289, 
        58.9461,
        59.4699,
        60.
     };
    const float REFLECTANCE_LOOKUP_RIGHT[1109] = {
         15.,
        15.0073,
        15.0146,
        15.0218,
        15.0291,
        15.0364,
        15.0436,
        15.0509, 
        15.0581,
        15.0654,
        15.0726,
        15.0799,
        15.0871,
        15.0943,
        15.1016, 
        15.1088,
        15.116,
        15.1232,
        15.1304,
        15.1376,
        15.1448,
        15.152,
        15.1592, 
        15.1664,
        15.1736,
        15.1808,
        15.188,
        15.1951,
        15.2023,
        15.2095, 
        15.2167,
        15.2238,
        15.231,
        15.2382,
        15.2453,
        15.2525,
        15.2597, 
        15.2668,
        15.274,
        15.2811,
        15.2883,
        15.2954,
        15.3026,
        15.3097, 
        15.3169,
        15.324,
        15.3311,
        15.3383,
        15.3454,
        15.3526,
        15.3597, 
        15.3669,
        15.374,
        15.3811,
        15.3883,
        15.3954,
        15.4025,
        15.4097, 
        15.4168,
        15.424,
        15.4311,
        15.4382,
        15.4454,
        15.4525,
        15.4597, 
        15.4668,
        15.4739,
        15.4811,
        15.4882,
        15.4954,
        15.5025,
        15.5097, 
        15.5168,
        15.524,
        15.5311,
        15.5383,
        15.5455,
        15.5526,
        15.5598, 
        15.5669,
        15.5741,
        15.5813,
        15.5884,
        15.5956,
        15.6028,
        15.61,
        15.6172, 
        15.6243,
        15.6315,
        15.6387,
        15.6459,
        15.6531,
        15.6603,
        15.6675, 
        15.6747,
        15.6819,
        15.6892,
        15.6964,
        15.7036,
        15.7108,
        15.7181, 
        15.7253,
        15.7325,
        15.7398,
        15.747,
        15.7543,
        15.7616,
        15.7688, 
        15.7761,
        15.7834,
        15.7907,
        15.7979,
        15.8052,
        15.8125,
        15.8198, 
        15.8271,
        15.8345,
        15.8418,
        15.8491,
        15.8564,
        15.8638,
        15.8711, 
        15.8785,
        15.8858,
        15.8932,
        15.9006,
        15.9079,
        15.9153,
        15.9227, 
        15.9301,
        15.9375,
        15.9449,
        15.9523,
        15.9598,
        15.9672,
        15.9746, 
        15.9821,
        15.9896,
        15.997,
        16.0045,
        16.012,
        16.0195,
        16.027,
        16.0345, 
        16.042,
        16.0495,
        16.0571,
        16.0646,
        16.0721,
        16.0797,
        16.0873, 
        16.0949,
        16.1024,
        16.11,
        16.1176,
        16.1253,
        16.1329,
        16.1405,
        16.1482, 
        16.1558,
        16.1635,
        16.1712,
        16.1789,
        16.1865,
        16.1943,
        16.202, 
        16.2097,
        16.2174,
        16.2252,
        16.233,
        16.2407,
        16.2485,
        16.2563, 
        16.2641,
        16.2719,
        16.2798,
        16.2876,
        16.2954,
        16.3033,
        16.3112, 
        16.3191,
        16.327,
        16.3349,
        16.3428,
        16.3508,
        16.3587,
        16.3667, 
        16.3746,
        16.3826,
        16.3906,
        16.3986,
        16.4067,
        16.4147,
        16.4228, 
        16.4308,
        16.4389,
        16.447,
        16.4551,
        16.4632,
        16.4714,
        16.4795, 
        16.4877,
        16.4959,
        16.5041,
        16.5123,
        16.5205,
        16.5287,
        16.537, 
        16.5452,
        16.5535,
        16.5618,
        16.5701,
        16.5784,
        16.5868,
        16.5951, 
        16.6035,
        16.6119,
        16.6203,
        16.6287,
        16.6372,
        16.6456,
        16.6541, 
        16.6626,
        16.6711,
        16.6796,
        16.6881,
        16.6966,
        16.7052,
        16.7138, 
        16.7224,
        16.731,
        16.7396,
        16.7483,
        16.757,
        16.7656,
        16.7743,
        16.7831, 
        16.7918,
        16.8005,
        16.8093,
        16.8181,
        16.8269,
        16.8357,
        16.8446, 
        16.8534,
        16.8623,
        16.8712,
        16.8801,
        16.8891,
        16.898,
        16.907,
        16.916, 
        16.925,
        16.934,
        16.9431,
        16.9522,
        16.9613,
        16.9704,
        16.9795,
        16.9886, 
        16.9978,
        17.007,
        17.0162,
        17.0254,
        17.0347,
        17.044,
        17.0532,
        17.0626, 
        17.0719,
        17.0812,
        17.0906,
        17.1,
        17.1094,
        17.1189,
        17.1283,
        17.1378, 
        17.1473,
        17.1568,
        17.1663,
        17.1759,
        17.1855,
        17.1951,
        17.2047, 
        17.2144,
        17.2241,
        17.2338,
        17.2435,
        17.2532,
        17.263,
        17.2728, 
        17.2826,
        17.2924,
        17.3023,
        17.3121,
        17.322,
        17.332,
        17.3419,
        17.3519, 
        17.3619,
        17.3719,
        17.3819,
        17.392,
        17.4021,
        17.4122,
        17.4223, 
        17.4325,
        17.4427,
        17.4529,
        17.4631,
        17.4734,
        17.4837,
        17.494, 
        17.5043,
        17.5147,
        17.5251,
        17.5355,
        17.5459,
        17.5564,
        17.5669, 
        17.5774,
        17.5879,
        17.5985,
        17.6091,
        17.6197,
        17.6303,
        17.641, 
        17.6517,
        17.6624,
        17.6732,
        17.6839,
        17.6947,
        17.7056,
        17.7164, 
        17.7273,
        17.7382,
        17.7491,
        17.7601,
        17.7711,
        17.7821,
        17.7932, 
        17.8042,
        17.8153,
        17.8265,
        17.8376,
        17.8488,
        17.86,
        17.8713,
        17.8825, 
        17.8938,
        17.9052,
        17.9165,
        17.9279,
        17.9393,
        17.9507,
        17.9622, 
        17.9737,
        17.9852,
        17.9968,
        18.0084,
        18.02,
        18.0316,
        18.0433,
        18.055, 
        18.0668,
        18.0785,
        18.0903,
        18.1022,
        18.114,
        18.1259,
        18.1378, 
        18.1498,
        18.1617,
        18.1738,
        18.1858,
        18.1979,
        18.21,
        18.2221,
        18.2343, 
        18.2465,
        18.2587,
        18.2709,
        18.2832,
        18.2956,
        18.3079,
        18.3203, 
        18.3327,
        18.3452,
        18.3577,
        18.3702,
        18.3827,
        18.3953,
        18.4079, 
        18.4206,
        18.4332,
        18.4459,
        18.4587,
        18.4715,
        18.4843,
        18.4971,
        18.51, 
